#*** IRS Blue Peakup Filter Transmission curve
#*** 
#*** These data were used to create the IRS Peak-Up
#*** filter transmission curves shown in Figure 7.39
#*** of the Spitzer Observer's Manual (v5.0).
#*** Note that this data represents ONLY the filter
#*** transmission and does NOT include the detector
#*** responsivity, which varies slightly with wavelength.
#***
# Wave (mum) % Trans			
12           0			
12.05714286  0			
12.11428571  0
12.17142857  0
12.22857143  1.5247			
12.28571429  0.0897			
12.34285714  0.852			
12.4         0.0448			
12.45714286  0.0448			
12.51428571  1.3453			
12.57142857  0.0897			
12.62857143  0
12.68571429  1.2556			
12.74285714  0
12.8         1.6592
12.85714286  1.2108
12.91428571  3.1839
12.97142857  4.8879
13.02857143  7.9822
13.08571429 10.2512
13.14285714 16.1257
13.2        31.2509
13.25714286 47.7418
13.31428571 69.3416
13.37142857 79.8616
13.42857143 80.8389
13.48571429 77.3737
13.54285714 77.7291
13.6        78.6176
13.65714286 82.7048
13.71428571 84.7484
13.77142857 85.4592
13.82857143 86.9697
13.88571429 87.7694
13.94285714 87.7694
14          89.4576
14.05714286 88.1248
14.11428571 89.2799
14.17142857 88.4802
14.22857143 88.6579
14.28571429 88.1248
14.34285714 87.9471
14.4        87.8582
14.45714286 86.9697
14.51428571 87.6805
14.57142857 86.7032
14.62857143 88.3025
14.68571429 87.5917
14.74285714 88.3913
14.8        88.3913
14.85714286 88.3913
14.91428571 87.5917
14.97142857 87.414
15.02857143 87.7694
15.08571429 88.4802
15.14285714 88.6579
15.2        88.8356
15.25714286 89.7241
15.31428571 89.3687
15.37142857 89.2799
15.42857143 90.1684
15.48571429 88.9245
15.54285714 88.6579
15.6        87.1474
15.65714286 86.7032
15.71428571 88.9245
15.77142857 87.7694
15.82857143 89.191
15.88571429 91.2346
15.94285714 92.3008
16          92.9316
16.05714286 91.6877
16.11428571 90.8881
16.17142857 92.4874
16.22857143 90.5326
16.28571429 89.2887
16.34285714 90.5326
16.4        90.3549
16.45714286 90.4438
16.51428571 90.4438
16.57142857 90.3549
16.62857143 92.9316
16.68571429 92.3097
16.74285714 93.0205
16.8        90.6215
16.85714286 90.1772
16.91428571 90.0884
16.97142857 89.111
17.02857143 87.6005
17.08571429 86.6232
17.14285714 85.8235
17.2        84.8461
17.25714286 85.8235
17.31428571 85.5569
17.37142857 84.935
17.42857143 84.7573
17.48571429 84.1353
17.54285714 83.8687
17.6        82.8914
17.65714286 82.536
17.71428571 80.4924
17.77142857 78.893
17.82857143 77.2937
17.88571429 75.9609
17.94285714 75.0724
18          74.1839
18.05714286 74.8947
18.11428571 75.2501
18.17142857 76.8494
18.22857143 78.0045
18.28571429 79.3373
18.34285714 81.1143
18.4        82.4471
18.45714286 83.7799
18.51428571 82.0029
18.57142857 77.0272
18.62857143 70.2744
18.68571429 60.7673
18.74285714 47.0131
18.8        33.241
18.85714286 22.0457
18.91428571 13.5338
18.97142857  8.6469
19.02857143  5.7148
19.08571429  4.1155
19.14285714  2.9604
19.2         1.3611
19.25714286  0.6503
19.31428571  0.2949
19.37142857  0.206
19.42857143  0.1171
19.48571429  0.1171
19.54285714  0.1171
19.6         0.3837
19.65714286  0.206
19.71428571  0.3837
19.77142857  0
19.82857143  0.0283
19.88571429  0.0283
19.94285714  0.206
